#   1 NUMBER                 Running object number                                     
#   2 X_IMAGE                Object position along x                                    [pixel]
#   3 Y_IMAGE                Object position along y                                    [pixel]
#   4 ALPHA_J2000            Right ascension of barycenter (J2000)                      [deg]
#   5 DELTA_J2000            Declination of barycenter (J2000)                          [deg]
#   6 FWHM_IMAGE             FWHM assuming a gaussian core                              [pixel]
#   7 MAG_BEST               Best of MAG_AUTO and MAG_ISOCOR                            [mag]
#   8 FLUX_RADIUS            Fraction-of-light radii                                    [pixel]
#   9 FLUX_MAX               Peak flux above background                                 [count]
#  10 MU_MAX                 Peak surface brightness above background                   [mag * arcsec**(-2)]
#  11 CLASS_STAR             S/G classifier output                                     
#  12 FLAGS                  Extraction flags                                          
         1   1457.096     81.207   7.6182901 +26.3358380    10.00  20.3810      5.670     1796.174  20.8149  0.81   0
         2   1311.128     22.661   7.6248864 +26.3382110    14.87  20.0840      6.809     1286.993  21.1768  0.05  16
         3   1349.075     30.455   7.6231713 +26.3378948    10.34  21.3159      5.414     501.9292  22.1991  0.24   0
         4    216.864     21.648   7.6743478 +26.3382634     5.94  20.5425      5.659     2060.146  20.6660  0.95  19
         5    269.536     12.912   7.6719669 +26.3386169    15.86  20.1503      9.132     1034.598  21.4138  0.03  19
         6    244.221      3.741   7.6731111 +26.3389883    16.87  19.2602      7.658     4602.371  19.7933  0.90  27
         7    862.812     24.020   7.6451506 +26.3381627    16.51  21.7686      5.446     378.8901  22.5044  0.63  16
         8   1648.202      4.967   7.6096499 +26.3389205    18.51  19.4823      7.304     3581.726  20.0655  0.87  24
         9     55.875      3.971   7.6816245 +26.3389793     6.74  22.3041      3.434     421.6914  22.3882  0.92  24
        10   1572.713     33.917   7.6130629 +26.3377501     3.76  20.8837      2.289      4005.95  19.9440  0.97   0
        11   1642.362     38.338   7.6099148 +26.3375696     7.09  21.3172      4.531     800.5874  21.6922  0.98   0
        12    174.435     40.071   7.6762657 +26.3375177     8.86  21.9889      4.351     382.4443  22.4943  0.73   0
        13    906.902     51.564   7.6431582 +26.3370471     9.65  21.5518      4.378     662.1406  21.8983  0.97   0
        14    624.295     44.457   7.6559320 +26.3373378     5.12  22.4279      2.753     644.4956  21.9277  0.92   0
        15   1712.291     64.299   7.6067549 +26.3365170     7.29  21.5651      3.871     673.5835  21.8797  0.96   0
        16    740.449     52.115   7.6506819 +26.3370267     5.31  23.3001      2.930     238.4209  23.0074  0.61   0
        17   1896.096     70.158   7.5984471 +26.3362751     7.57  21.9626      3.882     530.3271  22.1394  0.96   0
        18    238.500     71.150   7.6733703 +26.3362593     6.76  21.9804      4.136     504.9731  22.1926  0.96   0
        19   1767.891     71.364   7.6042420 +26.3362296     5.19  22.6557      3.144     415.3711  22.4046  0.78   0
        20    587.131     63.881   7.6576121 +26.3365517     4.52  23.7183      2.837     164.2222  23.4121  0.46   0
        21    500.972     76.250   7.6615066 +26.3360516     5.49  22.7261      3.237     357.3408  22.5680  0.72   0
        22   1657.088     79.838   7.6092505 +26.3358892     7.85  23.1384      3.287     226.5913  23.0626  0.55   0
        23    147.043     94.781   7.6775043 +26.3353028     7.44  21.2064      4.171     1068.957  21.3783  0.98   0
        24   1831.189    114.361   7.6013824 +26.3344873     4.76  19.4402      2.517     12539.42  18.7050  0.98   0
        25    636.649     81.987   7.6553741 +26.3358183     6.12  23.1306      3.869     179.0947  23.3180  0.53   0
        26   1610.279     81.476   7.6113663 +26.3358239     5.08  23.3186      3.378     198.9136  23.2041  0.56   0
        27    958.475     94.752   7.6408279 +26.3352980     3.90  22.2229      2.440     1085.079  21.3621  0.90   0
        28    611.755     87.665   7.6564994 +26.3355886     6.34  23.2633      3.428     192.5869  23.2392  0.55   0
        29   1853.070     92.374   7.6003926 +26.3353768     5.38  23.2425      2.864     253.2822  22.9417  0.58   0
        30   1890.716    113.617   7.5986918 +26.3345158     5.92  21.0232      3.936     1434.756  21.0588  0.98   0
        31   1365.414    163.210   7.6224363 +26.3325200    12.77  18.6919      6.296     4789.105  19.7501  0.03   0
        32    332.443     98.471   7.6691243 +26.3351529     6.73  22.9750      3.319     251.3833  22.9499  0.59   0
        33   1735.184    104.108   7.6057214 +26.3349048     4.67  22.4707      2.634     668.4277  21.8881  0.89   0
        34   1203.589    123.606   7.6297496 +26.3341262     3.19  21.5518      2.109     2676.187  20.3819  0.96   0
        35   1975.982    117.995   7.5948380 +26.3343363     8.09  22.7547      4.555      195.457  23.2231  0.51   0
        36   1933.989    114.485   7.5967359 +26.3344796     4.76  23.2640      3.293     258.7344  22.9186  0.58   0
        37    106.103    137.617   7.6793550 +26.3335687     6.39  21.3413      3.830     1018.417  21.4309  0.98   0
        38    548.719    122.441   7.6593491 +26.3341812     5.49  22.9649      2.718     385.7153  22.4851  0.73   0
        39   1113.439    181.067   7.6338256 +26.3318014    19.59  19.7202     11.251     913.7515  21.5487  0.03   0
        40    978.229    132.391   7.6399359 +26.3337739     7.00  22.5955      3.791     302.5513  22.7487  0.76   0
        41   1640.125    153.203   7.6100195 +26.3329194    10.18  21.0397      6.015     544.6714  22.1104  0.08   0
        42     13.762    129.241   7.6835287 +26.3339078     5.18  23.4162      3.010     204.6484  23.1732  0.55   0
        43    886.261    185.988   7.6440937 +26.3316053     5.31  19.5414      4.425     5297.845  19.6405  0.98   0
        44   1756.963    152.239   7.6047386 +26.3329557     6.42  22.4183      2.974     536.1401  22.1275  0.94   0
        45   1613.820    174.057   7.6112091 +26.3320758     4.18  18.8058      2.290     26441.55  17.8950  0.98   0
        46   1554.595    142.363   7.6138850 +26.3333602     4.60  23.6425      2.795     217.6577  23.1063  0.55   0
        47    446.553    222.231   7.6639681 +26.3301420     8.87  16.1108      3.130     133022.1  16.1409  1.00   4
        48    613.086    163.340   7.6564403 +26.3325250     3.29  21.1852      2.187     3416.354  20.1168  0.96   0
        49   1852.571    171.011   7.6004179 +26.3321933     5.09  20.8465      3.965     1875.504  20.7679  0.98   0
        50    962.988    150.996   7.6406251 +26.3330209     2.77  24.2525      2.046     233.9941  23.0277  0.57   0
        51    765.086    159.929   7.6495701 +26.3326616     4.60  23.4356      2.639     324.9697  22.6711  0.58   0
        52   1264.448    159.181   7.6269997 +26.3326850     4.25  23.4595      3.340     208.8022  23.1514  0.51   0
        53    577.513    182.319   7.6580485 +26.3317569     6.41  21.0067      3.661     1684.516  20.8845  0.98   0
        54    956.642    175.923   7.6409124 +26.3320119     3.72  22.1758      2.479     1211.759  21.2422  0.91   0
        55    763.671    177.854   7.6496344 +26.3319360     6.83  21.9416      3.389     733.1182  21.7878  0.96   0
        56    114.088    188.789   7.6789944 +26.3314970     7.07  21.4153      4.109      823.457  21.6616  0.98   0
        57    298.066    186.219   7.6706790 +26.3316006     5.68  22.6340      2.966     430.1831  22.3666  0.86   0
        58   1087.064    182.917   7.6350177 +26.3317269     7.06  21.7957      8.205     262.9995  22.9008  0.65   0
        59   1151.074    215.610   7.6321253 +26.3304023     9.28  21.0130      4.421     1015.789  21.4337  0.95   0
        60    476.604    220.256   7.6626098 +26.3302218     6.58  21.3336      4.479      933.478  21.5255  0.97   0
        61      2.375    206.260   7.6840437 +26.3307898     6.83  23.4416      2.929     256.3711  22.9286  0.59  24
        62    651.646    202.638   7.6546981 +26.3309337     3.85  23.5448      2.818     262.2935  22.9038  0.55   0
        63   1460.644    203.871   7.6181332 +26.3308720     3.11  24.0081      2.282     260.8359  22.9098  0.59   0
        64   1663.983    225.298   7.6089434 +26.3300001     5.76  22.2617      3.549     479.6313  22.2485  0.93   0
        65     65.337    367.308   7.6811989 +26.3242698    33.20  17.9827     15.863     2367.452  20.5150  0.03  16
        66    170.879    231.906   7.6764279 +26.3297514     7.67  22.0614      4.317     382.7651  22.4934  0.84   0
        67    709.608    244.409   7.6520790 +26.3292421     6.04  20.2337      4.275     2878.302  20.3029  0.98   0
        68   1016.385    232.895   7.6382133 +26.3297046     7.89  22.1207      5.811     260.8101  22.9099  0.63   0
        69   1337.452    224.853   7.6237017 +26.3300250     5.06  23.5419      2.773      241.895  22.9917  0.64   0
        70    669.976    246.237   7.6538703 +26.3291684     3.95  20.0732      2.126     9023.183  19.0623  0.97   0
        71   1433.141    229.415   7.6193770 +26.3298384     4.73  22.8232      3.032     395.1626  22.4588  0.72   0
        72    774.234    255.425   7.6491583 +26.3287955     5.63  21.0987      3.899     1577.498  20.9558  0.98   0
        73   1682.762    235.189   7.6080949 +26.3295992     6.31  23.0231      3.842     210.4019  23.1431  0.55   0
        74   1473.182    261.499   7.6175681 +26.3285387     6.07  21.2848      3.396     1391.609  21.0919  0.98   0
        75   1419.400    251.764   7.6199987 +26.3289339     6.13  22.0207      3.388     634.1206  21.9453  0.96   0
        76    318.173    260.538   7.6697709 +26.3285918     9.63  21.5197      5.638     430.9697  22.3646  0.78   0
        77   1221.089    277.655   7.6289623 +26.3278894     9.01  20.7561      4.818     990.8267  21.4607  0.56   0
        78    654.389    269.521   7.6545751 +26.3282259     5.48  20.5904      2.984     3287.706  20.1585  0.98   0
        79   1758.403    266.562   7.6046772 +26.3283273     6.09  21.8718      3.368      782.376  21.7172  0.96   0
        80    727.974    270.300   7.6512493 +26.3281937     5.64  22.0119      3.195     741.0654  21.7761  0.96   0
        81   1983.852    258.062   7.5944873 +26.3286656     5.27  23.1602      3.178     257.8896  22.9221  0.59   0
        82    191.724    276.733   7.6754862 +26.3279366     6.24  21.5571      3.925     837.2417  21.6436  0.98   0
        83      7.994    280.731   7.6837901 +26.3277749     7.31  21.5891      3.786     819.6406  21.6667  0.97  16
        84    602.800    260.397   7.6569067 +26.3285958     3.26  23.8020      2.871     182.3921  23.2982  0.48  16
        85   1039.867    274.545   7.6371529 +26.3280181     4.18  23.4062      2.388     359.0078  22.5630  0.68   0
        86   1322.539    314.745   7.6243781 +26.3263860    14.46  21.4035      5.067     572.2222  22.0568  0.75   0
        87    651.173    287.158   7.6547208 +26.3275120     7.58  22.0443      4.502     416.3877  22.4020  0.93   0
        88    110.126    272.430   7.6791741 +26.3281109     5.49  23.5740      2.714     208.1743  23.1547  0.58   0
        89     17.771    315.819   7.6833484 +26.3263543    13.89  20.7833      6.553     545.4253  22.1089  0.02  16
        90   1470.847    274.850   7.6176740 +26.3279982     3.72  23.6716      2.544     275.1172  22.8519  0.65   0
        91   2011.745    279.935   7.5932275 +26.3277793     5.04  23.4785      2.658     261.8438  22.9056  0.57  16
        92    312.435    298.660   7.6700306 +26.3270485     5.81  21.3609      4.055     1009.752  21.4402  0.97   0
        93    372.211    297.231   7.6673289 +26.3271061     3.57  21.0032      2.280     3701.207  20.0299  0.98   0
        94    533.987    277.022   7.6600170 +26.3279232     4.13  23.5854      3.275     209.2026  23.1493  0.46   0
        95   1135.743    298.795   7.6328202 +26.3270349     5.05  22.8053      2.655     454.8389  22.3061  0.80   0
        96    681.494    297.862   7.6533505 +26.3270783     5.95  23.1892      3.052     241.4819  22.9935  0.54   0
        97   1055.121    331.000   7.6364647 +26.3257323     9.25  19.8635      5.262     2018.527  20.6881  0.19   0
        98   1432.381    311.629   7.6194136 +26.3265101     5.75  21.8714      2.790     1054.586  21.3930  0.96   0
        99    109.540    311.859   7.6792008 +26.3265146     9.21  22.3320      4.136     298.7939  22.7623  0.62   0
       100    497.461    308.612   7.6616682 +26.3266446     4.26  22.3300      2.319     907.2822  21.5564  0.91   0
       101     49.438    312.534   7.6819172 +26.3264873     5.15  22.1195      3.067     713.0083  21.8180  0.94   0
       102    596.075    315.678   7.6572114 +26.3263578     3.32  22.0092      2.404     1722.927  20.8601  0.93   0
       103    995.908    303.615   7.6391403 +26.3268418     6.04  23.5890      2.652     223.8999  23.0756  0.55   0
       104    191.371    397.077   7.6755030 +26.3230645     9.37  19.1980      8.291     3437.824  20.1100  0.48   0
       105   1700.274    331.999   7.6073065 +26.3256796     5.37  21.7085      3.178     967.3804  21.4867  0.97   0
       106    289.403    315.623   7.6710717 +26.3263618     5.48  23.5718      2.877     203.0234  23.1819  0.57   0
       107    221.037    357.162   7.6741620 +26.3246803     5.55  19.9924      4.136     3577.362  20.0668  0.99   0
       108   1997.014    318.547   7.5938947 +26.3262165     5.14  23.5962      2.497     270.6997  22.8695  0.54   0
       109    529.973    325.709   7.6601991 +26.3259522     4.26  23.8420      2.624     186.1914  23.2758  0.43   0
       110   1877.992    327.285   7.5992742 +26.3258660     4.27  23.8348      2.667     162.0625  23.4265  0.46   0
       111    506.031    337.023   7.6612813 +26.3254943     3.70  23.5595      2.253      351.249  22.5867  0.70   0
       112   1714.956    360.922   7.6066439 +26.3245083     3.93  20.0571      2.165     9152.283  19.0469  0.97   0
       113   1778.173    343.461   7.6037862 +26.3252136     5.68  22.9128      3.277     288.4751  22.8005  0.65   0
       114    721.041    418.670   7.6515651 +26.3221871     6.53  18.4979      6.109     8615.995  19.1125  0.90   0
       115   1982.631    435.458   7.5945489 +26.3214838    14.97  15.9038      3.201     146232.8  16.0381  1.00   4
       116    715.112    348.261   7.6518319 +26.3250376     4.19  23.5995      2.512     258.7109  22.9187  0.56   0
       117    798.387    354.123   7.6480683 +26.3247995     5.52  22.6008      2.770     526.2183  22.1478  0.88   0
       118    877.659    354.201   7.6444856 +26.3247954     3.85  23.6364      2.516     270.9927  22.8683  0.64   0
       119    584.969    402.163   7.6577145 +26.3228566    10.21  19.6188      5.488     2760.155  20.3484  0.30   0
       120   1939.889    360.001   7.5964779 +26.3245398     4.34  22.5516      2.464     776.2681  21.7257  0.89   0
       121   1560.708    366.042   7.6136153 +26.3243045    17.51  21.6419      5.642     425.3555  22.3788  0.49  16
       122   1860.581    356.577   7.6000622 +26.3246805     6.16  23.6569      2.592     214.0103  23.1246  0.63   0
       123   1008.669    396.306   7.6385655 +26.3230891    10.71  20.8645      4.591     970.8916  21.4828  0.70   0
       124    782.679    362.069   7.6487784 +26.3244779     6.15  23.2241      3.710     222.3774  23.0830  0.56   0
       125    655.177    369.892   7.6545411 +26.3241625     4.80  22.9180      2.735     448.4297  22.3215  0.72   0
       126    601.869    361.126   7.6569502 +26.3245178     3.87  23.8407      2.634     182.5273  23.2974  0.51   0
       127   1968.019    392.856   7.5952078 +26.3232090     3.92  19.9289      2.182     10282.81  18.9204  0.98   0
       128    297.655    420.067   7.6706998 +26.3221334     6.94  20.0781      5.712     2439.754  20.4824  0.92   0
       129   1245.500    364.014   7.6278612 +26.3243928     4.57  24.0295      2.357     178.4351  23.3220  0.49   0
       130    572.328    434.043   7.6582863 +26.3215660    19.08  19.6321      9.089     1187.736  21.2639  0.03   0
       131   1772.470    375.811   7.6040450 +26.3239041     4.72  23.3463      2.763     264.5869  22.8943  0.62   0
       132    955.145    406.208   7.6409847 +26.3226889    12.69  20.7897      5.092     998.9453  21.4519  0.78   0
       133    297.474    386.188   7.6707076 +26.3235050     6.05  22.7059      3.564     302.1284  22.7502  0.65   0
       134    165.996    380.511   7.6766497 +26.3237352     5.19  23.4279      2.994     222.4995  23.0824  0.55   0
       135   1017.564    432.840   7.6381642 +26.3216099     4.82  20.4079      3.249     3567.946  20.0697  0.98   0
       136   1467.000    386.186   7.6178510 +26.3234910     4.79  23.7198      2.551     217.0972  23.1091  0.56   0
       137     12.063    406.830   7.6836069 +26.3226698     7.48  21.8402      3.784     564.4136  22.0717  0.95  16
       138    857.918    411.556   7.6453789 +26.3224737     8.20  22.9149      4.170      211.103  23.1395  0.51   0
       139   1839.033    421.953   7.6010383 +26.3220344     6.07  22.2414      3.395     517.1709  22.1666  0.94   0
       140   1149.043    437.861   7.6322222 +26.3214047     7.92  21.2194      4.482     788.9893  21.7080  0.92   0
       141   1970.527    478.407   7.5950975 +26.3197454     5.33  17.5108      2.353     84252.73  16.6368  0.98   4
       142   1109.130    445.185   7.6340263 +26.3211088     5.73  22.1106      3.274     630.1343  21.9521  0.95   0
       143    661.277    438.726   7.6542664 +26.3213757     5.37  23.3949      2.698     278.8262  22.8374  0.54   0
       144   1855.172    437.692   7.6003094 +26.3213968     5.31  23.2424      3.816     197.7798  23.2103  0.49   0
       145   1132.722    455.816   7.6329603 +26.3206780     4.53  21.7555      2.917     1269.811  21.1914  0.96   0
       146    968.801    441.839   7.6403682 +26.3212463     4.12  23.5230      2.555     287.9453  22.8024  0.61   0
       147    500.077    471.153   7.6615521 +26.3200642    10.08  19.6609      4.658      4006.71  19.9438  0.98   0
       148   1489.091    483.995   7.6168554 +26.3195308    23.59  20.9528      8.288     396.7954  22.4543  0.01   0
       149   1225.201    451.915   7.6287807 +26.3208345     5.38  23.6250      2.934     199.5146  23.2008  0.55   0
       150    375.750    461.442   7.6671708 +26.3204580     6.30  22.0618      4.592     401.7461  22.4408  0.90   0
       151    800.323    474.937   7.6479830 +26.3199084     5.31  21.7877      2.932     1079.039  21.3681  0.96   0
       152    462.281    670.780   7.6632626 +26.3119827    23.72  19.2257      8.300     2220.603  20.5845  0.03   0
       153   1390.870    462.176   7.6212938 +26.3204161     6.56  22.8091      4.755     182.4917  23.2976  0.52   0
       154    851.627    462.354   7.6456642 +26.3204172     4.43  23.4400      2.493     303.7593  22.7444  0.63   0
       155     93.643    485.182   7.6799204 +26.3194978     6.44  21.5723      3.467     930.0142  21.5295  0.98   0
       156   1587.071    481.631   7.6124273 +26.3196244     5.52  22.6128      3.160     442.4351  22.3361  0.83   0
       157    189.580    473.650   7.6755846 +26.3199645     4.70  23.5454      2.378     300.6592  22.7555  0.64   0
       158   1870.446    486.857   7.5996208 +26.3194060     6.50  22.3167      4.148     370.0713  22.5300  0.88   0
       159    376.137    476.730   7.6671535 +26.3198391     4.85  23.1947      3.536     226.5786  23.0627  0.57   0
       160    841.380    486.360   7.6461277 +26.3194455     5.08  21.9778      3.670     725.8896  21.7985  0.93   0
       161    588.734    577.324   7.6575469 +26.3157653    10.79  15.6935      3.428     145186.9  16.0459  1.00   4
       162   1112.608    486.000   7.6338700 +26.3194564     3.82  23.3728      2.310     405.3071  22.4313  0.69   0
       163    830.155    527.213   7.6466357 +26.3177917     6.65  19.9284      5.011     3050.638  20.2397  0.93   0
       164    492.995    497.925   7.6618725 +26.3189804     5.00  21.7446      2.873     1202.088  21.2509  0.96   0
       165      7.623    497.612   7.6838080 +26.3189946     6.01  22.4396      3.314     428.3862  22.3711  0.89  16
       166   1770.520    487.724   7.6041368 +26.3193734     4.17  23.5706      2.697     233.4497  23.0302  0.61   0
       167    738.286    508.494   7.6507872 +26.3185505     9.43  21.0278      4.086     1158.773  21.2907  0.97   0
       168    616.461    491.745   7.6562926 +26.3192297     5.72  23.6434      2.686     197.0684  23.2142  0.52   0
       169    130.906    502.286   7.6782365 +26.3188053     5.34  22.4651      3.026     578.4644  22.0450  0.91   0
       170   1298.100    535.034   7.6254882 +26.3174682    12.01  21.0935      6.627     500.1479  22.2030  0.09   0
       171    927.183    510.685   7.6422504 +26.3184596     4.16  22.9537      2.216     650.2969  21.9179  0.77   0
       172   1976.036    510.409   7.5948497 +26.3184497     7.16  22.9064      3.586     235.7402  23.0196  0.57   0
       173      3.072    533.163   7.6840138 +26.3175553    11.77  22.5126      4.266      341.855  22.6161  0.85  24
       174    951.198    509.395   7.6411651 +26.3185115     3.44  24.2703      2.004     213.4077  23.1277  0.52  16
       175    188.996    512.706   7.6756113 +26.3183833     4.13  23.5957      3.177     163.6318  23.4161  0.42   0
       176   1936.174    522.688   7.5966516 +26.3179537     5.66  23.0874      3.477     241.5474  22.9932  0.57   0
       177    124.965    550.277   7.6785053 +26.3168624     5.02  20.5706      4.283       2345.7  20.5250  0.98   0
       178    651.642    527.629   7.6547032 +26.3177766     4.35  22.8386      2.728     520.5684  22.1595  0.76   0
       179    105.849    534.584   7.6793691 +26.3174977     5.51  22.9060      3.187      308.291  22.7283  0.67   0
       180   1589.672    552.323   7.6123119 +26.3167624     3.64  21.3132      2.259     2784.965  20.3387  0.96   0
       181   1669.633    536.359   7.6086978 +26.3174069     4.40  23.7801      2.327     242.1494  22.9905  0.56   0
       182    172.802    544.813   7.6763434 +26.3170835     5.70  22.8532      3.030     338.8638  22.6257  0.74   0
       183   1619.816    563.392   7.6109499 +26.3163136     8.55  22.0766      4.782     339.4263  22.6239  0.88   0
       184    975.604    562.023   7.6400632 +26.3163806     6.59  21.5809      3.873     792.0967  21.7038  0.97   0
       185    401.026    539.505   7.6660293 +26.3172976     3.74  24.0299      2.379     188.6401  23.2616  0.55  16
       186   1437.209    558.252   7.6192022 +26.3165256     5.12  22.4379      3.096     583.2397  22.0361  0.90   0
       187   1157.139    545.133   7.6318588 +26.3170617     4.52  23.8820      2.557      170.314  23.3726  0.44   0
       188   1892.437    561.132   7.5986295 +26.3163985     4.32  22.3547      2.466      874.666  21.5961  0.91   0
       189   1599.213    561.040   7.6118809 +26.3164093     4.19  22.1914      2.649     949.1021  21.5074  0.91   0
       190    875.107    558.199   7.6446048 +26.3165367     6.24  23.3081      2.998      218.792  23.1006  0.57   0
       191   1253.605    559.193   7.6274997 +26.3164909     6.75  23.0407      3.823      225.666  23.0671  0.53   0
       192   1091.996    553.999   7.6348030 +26.3167038     3.69  24.0293      2.411     189.7622  23.2552  0.52   0
       193   1069.016    552.500   7.6358415 +26.3167648     3.75  23.8982      2.596     167.4019  23.3913  0.43  16
       194    493.232    570.468   7.6618627 +26.3160435     5.34  22.7554      3.343     349.0757  22.5934  0.69   0
       195     43.559    567.337   7.6821843 +26.3161718     4.94  23.5478      3.170     146.0527  23.5394  0.45   0
       196   1578.604    573.079   7.6128127 +26.3159224     6.65  23.3065      3.339     200.0854  23.1977  0.52   0
       197   1962.758    586.667   7.5954525 +26.3153628     7.02  22.5037      3.583     357.5874  22.5673  0.89   0
       198    770.978    588.215   7.6493111 +26.3153227    10.14  22.1587      4.601     279.3018  22.8355  0.55   0
       199   1794.197    580.438   7.6030698 +26.3156194     4.09  22.8330      2.712     519.4956  22.1618  0.75   0
       200   1208.402    784.795   7.6295479 +26.3073583    20.76  18.5223     10.115     3532.174  20.0806  0.03   0
       201   1006.806    587.100   7.6386536 +26.3153650     3.87  22.7030      2.395      757.562  21.7522  0.79   0
       202   1752.794    595.051   7.6049414 +26.3150288     4.92  22.4728      3.012     563.2959  22.0739  0.84   0
       203   1473.080    587.784   7.6175819 +26.3153293     7.12  22.8809      4.068      238.729  23.0060  0.57   0
       204   1820.446    593.785   7.6018841 +26.3150784     4.51  22.6722      2.365     699.0049  21.8395  0.83   0
       205    550.405    631.246   7.6592798 +26.3135826     6.02  19.4835      3.883     5517.597  19.5963  0.98   0
       206    536.377    615.827   7.6599135 +26.3142069     5.08  20.3815      3.182     3605.645  20.0583  0.98   0
       207    199.395    711.526   7.6751429 +26.3103342    14.10  21.6916      5.175     411.3999  22.4151  0.32   0
       208    799.737    615.872   7.6480119 +26.3142027     5.39  22.3596      3.388     500.5303  22.2021  0.87   0
       209   1460.119    614.520   7.6181684 +26.3142472     4.94  22.6773      2.640     593.6396  22.0169  0.82   0
       210    674.088    628.904   7.6536904 +26.3136764     3.28  20.6539      2.007     6153.053  19.4780  0.97   0
       211   1099.999    622.792   7.6344429 +26.3139187     5.41  22.0811      2.964     792.5928  21.7031  0.95   0
       212    831.765    645.036   7.6465651 +26.3130217     6.92  20.1412      4.015      2811.27  20.3285  0.98   0
       213    624.749    643.896   7.6559203 +26.3130699     5.30  20.9433      3.659     1941.835  20.7302  0.98   0
       214   1616.452    623.380   7.6111038 +26.3138851     4.95  23.4656      2.764     235.4971  23.0208  0.63   0
       215    188.341    628.812   7.6756418 +26.3136829     6.23  22.6894      3.243     375.5234  22.5141  0.78   0
       216    636.699    670.939   7.6553806 +26.3119749     6.05  19.6018      4.552     4246.116  19.8807  0.96   0
       217     84.002    625.001   7.6803570 +26.3138373     4.12  23.9878      2.307     199.0933  23.2031  0.55   0
       218   1374.721    636.168   7.6220282 +26.3133724     7.88  22.8542      3.855      208.626  23.1523  0.54   0
       219   1241.126    642.411   7.6280656 +26.3131221     7.27  22.5356      3.819      298.376  22.7638  0.80   0
       220    928.890    631.861   7.6421756 +26.3135539     4.51  23.8931      2.543     194.1748  23.2302  0.54   0
       221    917.410    668.399   7.6426952 +26.3120748     6.98  20.6258      4.139     1711.917  20.8670  0.98   3
       222    961.251    665.020   7.6407139 +26.3122110     3.82  19.7501      2.146     12670.48  18.6937  0.97   0
       223    522.892    637.500   7.6605232 +26.3133296     5.36  23.4158      3.006      243.582  22.9841  0.59   0
       224    928.561    676.664   7.6421914 +26.3117401     8.59  20.8942      5.644     1014.183  21.4354  0.62   3
       225   2012.582    647.280   7.5932031 +26.3129075     4.58  22.7343      2.402     596.2988  22.0121  0.83  16
       226   1695.421    708.818   7.6075378 +26.3104244    10.32  20.0182      9.189     1279.446  21.1832  0.47   2
       227    389.815    652.646   7.6665372 +26.3127172     8.23  22.7745      4.506     175.4297  23.3405  0.52   0
       228    949.003    648.974   7.6412671 +26.3128608     6.06  23.0342      3.610     218.4604  23.1023  0.52   0
       229   1210.940    658.359   7.6294301 +26.3124770     4.59  22.3274      2.811     780.2109  21.7202  0.91   0
       230   1023.775    646.000   7.6378880 +26.3129802     4.02  23.9879      2.211     221.3872  23.0878  0.55   0
       231   1149.674    655.262   7.6321987 +26.3126034     5.59  23.0498      3.157     291.0923  22.7906  0.61   0
       232   1821.453    654.783   7.6018406 +26.3126089     8.18  22.8334      4.304     173.4546  23.3528  0.52   0
       233    772.228    656.373   7.6492558 +26.3125633     5.94  23.5896      2.882     201.0181  23.1926  0.61   0
       234   1350.099    682.685   7.6231421 +26.3114897     6.25  20.6692      4.142     1891.087  20.7589  0.98   0
       235    717.209    668.050   7.6517423 +26.3120912     5.42  22.9513      2.934     339.7305  22.6229  0.70   0
       236   1921.306    668.806   7.5973287 +26.3120386     6.93  22.4206      5.251     233.8301  23.0285  0.55   0
       237    233.804    702.418   7.6735879 +26.3107028     6.19  22.5494      3.297     425.8555  22.3776  0.87   0
       238    537.067    684.689   7.6598832 +26.3114191     5.30  21.5785      3.030     1247.343  21.2108  0.97   0
       239     92.300    669.702   7.6799822 +26.3120276     5.18  23.6443      2.898      173.999  23.3494  0.48   0
       240   1541.326    718.267   7.6145016 +26.3100453    10.84  19.7505      6.428     1867.943  20.7723  0.04   0
       241    402.046    723.128   7.6659853 +26.3098637     4.98  17.4377      2.391     84673.71  16.6314  0.99   4
       242    281.713    697.825   7.6714228 +26.3108886     6.13  21.8091      3.264      847.938  21.6298  0.97   0
       243    446.914    723.005   7.6639577 +26.3098685     5.71  19.5853      3.592     5742.321  19.5530  0.98   0
       244    488.930    700.727   7.6620588 +26.3107701     5.25  22.6735      2.728     519.6299  22.1615  0.89   0
       245    951.065    742.120   7.6411757 +26.3090898    17.35  20.7974      8.236     533.9702  22.1319  0.19   0
       246    531.760    715.950   7.6601235 +26.3101535     6.19  21.0988      3.725     1455.038  21.0435  0.98   0
       247   1852.536    724.099   7.6004383 +26.3098019     6.69  20.9696      4.432     1148.724  21.3002  0.98   0
       248    299.921    699.072   7.6706000 +26.3108381     4.99  23.3407      2.783     272.5161  22.8622  0.58   0
       249    237.994    737.723   7.6733989 +26.3092735     9.63  20.5596      5.261     1093.712  21.3535  0.19   0
       250    163.170    721.088   7.6767800 +26.3099472     6.21  21.8027      3.465     785.3662  21.7130  0.97   0
       251    694.492    700.985   7.6527694 +26.3107580     4.23  23.8643      2.580     201.7134  23.1889  0.56   0
       252   1702.578    718.643   7.6072146 +26.3100265     7.00  22.4997      7.376     456.2983  22.3026  0.91   3
       253    625.018    789.042   7.6559102 +26.3071937    21.68  18.9662      8.446     6921.232  19.3503  0.90   2
       254    932.750    903.315   7.6420065 +26.3025642    19.88  17.5404     22.806     5432.035  19.6133  0.03   2
       255   1646.855    722.538   7.6097329 +26.3098701     5.46  22.2259      2.912     680.9453  21.8679  0.95   0
       256   1322.067    712.140   7.6244096 +26.3102977     6.14  23.0240      4.205     170.3896  23.3721  0.52   0
       257    880.297    750.010   7.6443738 +26.3087713     9.72  20.8366      5.167     836.9302  21.6440  0.10   0
       258    864.873    717.093   7.6450702 +26.3101041     6.39  22.9386      4.127     203.4116  23.1798  0.51   0
       259    460.051    734.447   7.6633642 +26.3094052     6.20  22.4715      4.159     318.5879  22.6926  0.76   0
       260    554.448    730.817   7.6590984 +26.3095515     6.39  22.8300      3.338     353.7329  22.5790  0.86   0
       261   1247.795    807.412   7.6277683 +26.3064420     9.04  16.0191      3.005     143444.8  16.0590  1.00   4
       262   1117.862    738.708   7.6336382 +26.3092256     5.54  22.5190      3.194     444.9385  22.3300  0.86   0
       263    575.805    844.108   7.6581349 +26.3049648     6.25  17.9673      9.069     11231.31  18.8246  0.91   0
       264   1258.128    743.884   7.6272998 +26.3090137    10.19  21.8485      4.063     572.2207  22.0568  0.96   0
       265    519.303    744.669   7.6606868 +26.3089909     6.28  22.2705      3.276     559.6768  22.0809  0.94   0
       266    167.323    749.858   7.6765925 +26.3087824     5.29  21.9612      3.151     810.0527  21.6794  0.96   0
       267    641.978    763.553   7.6551435 +26.3082255     5.51  21.2222      4.267     1308.372  21.1589  0.97   0
       268   1168.898    785.638   7.6313330 +26.3073249     8.14  20.9501      5.205     1284.075  21.1792  0.95   3
       269    396.078    787.062   7.6662557 +26.3072754     7.14  20.2539      4.464     2275.512  20.5580  0.98   0
       270    719.665    764.102   7.6516329 +26.3082025     5.02  22.0976      2.770     864.8047  21.6084  0.96   0
       271    260.478    776.553   7.6723832 +26.3077015     6.77  21.4865      3.883     841.1816  21.6385  0.98   0
       272   1585.858    762.249   7.6124905 +26.3082638     8.64  23.0392      3.489     233.9697  23.0278  0.58   0
       273    361.344    750.738   7.6678249 +26.3087462     4.63  23.4540      3.361     151.8662  23.4971  0.45   0
       274    612.980    777.749   7.6564541 +26.3076510     9.34  21.8941      6.783     658.9175  21.9036  0.97   3
       275    527.603    759.126   7.6603119 +26.3084056     8.33  23.1519      3.403     253.7163  22.9399  0.60   0
       276   1180.391    777.157   7.6308135 +26.3076680     5.60  21.7278      3.721     974.8892  21.4783  0.97   3
       277     53.221    767.655   7.6817488 +26.3080621     5.81  23.5518      2.885     195.5757  23.2224  0.55   0
       278    419.088    801.456   7.6652160 +26.3066926     4.23  18.8756      2.268     23462.11  18.0248  0.98   0
       279    491.273    802.121   7.6619541 +26.3066652     3.85  19.0859      2.074     24393.29  17.9825  0.97   0
       280    932.902    786.116   7.6419973 +26.3073089     5.14  22.4380      2.945     575.1309  22.0513  0.90   0
       281    332.459    791.511   7.6691306 +26.3070956     5.33  22.5586      2.976     478.2646  22.2516  0.87   0
       282    592.617    784.036   7.6573743 +26.3073967     4.73  22.6415      4.950     287.2852  22.8049  0.61   0
       283    810.368    852.359   7.6475357 +26.3046285    17.41  19.0259      7.935     2919.812  20.2873  0.03   0
       284   1836.515    785.477   7.6011644 +26.3073174     5.03  23.6605      2.861     182.5879  23.2970  0.50   0
       285   1702.995    806.660   7.6071986 +26.3064631    10.42  21.9898      4.413     356.5654  22.5704  0.67   0
       286     67.605    787.592   7.6810989 +26.3072549     5.93  23.3096      3.427      190.415  23.2515  0.55   0
       287   1458.877    805.409   7.6182299 +26.3065192     5.98  22.1318      3.084     684.1782  21.8628  0.95   0
       288    528.951    847.134   7.6602521 +26.3048427     7.56  19.2254      5.770     4879.951  19.7297  0.89   0
       289    842.867    816.286   7.6460664 +26.3060886     5.15  21.0094      3.442     1964.917  20.7174  0.98   0
       290    192.069    796.070   7.6754746 +26.3069115     7.52  23.1560      3.519     189.9297  23.2542  0.55   0
       291    991.009    803.187   7.6393719 +26.3066170     4.82  22.7524      2.576     547.0977  22.1056  0.82   0
       292      3.715    821.307   7.6839862 +26.3058900     9.33  21.9338      3.415     533.6421  22.1326  0.95  24
       293    276.078    804.385   7.6716785 +26.3065747     6.36  23.0280      3.734      206.668  23.1625  0.52   0
       294    419.155    847.218   7.6652136 +26.3048399     6.85  20.6475      4.042     2344.201  20.5257  0.98   3
       295   1282.626    812.747   7.6261945 +26.3062254     5.46  23.1267      3.291     246.1265  22.9728  0.58   0
       296   1611.440    827.518   7.6113364 +26.3056208     5.67  21.8950      3.776     675.8208  21.8761  0.96   0
       297    412.968    840.141   7.6654930 +26.3051265     9.02  21.1030      4.476     1029.096  21.4196  0.97   3
       298    648.384    850.507   7.6548553 +26.3047051     6.72  20.6610      4.680     1768.088  20.8320  0.98   3
       299    467.718    820.515   7.6630188 +26.3059207     3.63  23.8679      2.131      267.481  22.8825  0.59   0
       300   1650.868    827.375   7.6095548 +26.3056258     6.31  22.6811      3.632     338.3091  22.6274  0.71   0
       301   1486.541    830.683   7.6169805 +26.3054954     5.18  22.5785      2.699     560.7866  22.0787  0.87   0
       302   1054.758    829.006   7.6364918 +26.3055709     4.70  23.4194      2.372     334.0366  22.6412  0.64   0
       303    632.304    850.352   7.6555819 +26.3047115    14.90  20.8954      7.830     1249.847  21.2086  0.90   3
       304    918.915    834.598   7.6426303 +26.3053463     5.23  22.7791      3.213     367.4937  22.5376  0.67   0
       305   1529.547    841.075   7.6150374 +26.3050738     6.46  22.6650      3.055     426.9736  22.3747  0.86   0
       306    653.759    839.979   7.6546123 +26.3051313     5.55  22.9346      3.525     369.9355  22.5304  0.67   3
       307    717.106    842.806   7.6517498 +26.3050163     5.40  22.4322      2.875     578.1064  22.0457  0.91   0
       308   1984.326    835.003   7.5944868 +26.3053085     4.19  23.7355      2.378     246.8843  22.9695  0.58   0
       309    888.171    872.958   7.6440203 +26.3037937     5.80  20.7334      8.738     1748.933  20.8438  0.94   3
       310   1608.497    849.026   7.6114701 +26.3047502     5.14  22.2600      3.150     601.8208  22.0021  0.91   0
       311   1091.681    844.515   7.6348236 +26.3049424     4.12  23.4129      2.365     341.8296  22.6162  0.69   0
       312   1307.489    868.086   7.6250724 +26.3039846     3.85  19.3865      2.106     17057.94  18.3709  0.98   0
       313     33.850    853.281   7.6826246 +26.3045955     4.28  22.1367      2.638     1166.327  21.2837  0.94   0
       314    489.565    889.427   7.6620324 +26.3031307     4.80  19.1990      3.360     10990.04  18.8482  0.98   0
       315    987.133    888.331   7.6395488 +26.3031701     4.98  19.9562      4.957     3783.051  20.0061  0.98   0
       316   1334.473    877.479   7.6238533 +26.3036038     5.16  20.6405      3.358     2737.771  20.3572  0.98   0
       317   1307.989    854.976   7.6250495 +26.3045154     4.38  23.0713      2.746     418.6533  22.3961  0.68   1
       318    375.768    848.331   7.6671741 +26.3047951     4.94  23.7776      2.267     235.2529  23.0219  0.58   0
       319   1095.830    864.139   7.6346366 +26.3041479     5.07  21.9520      2.815      1028.69  21.4200  0.96   0
       320   1986.930    853.132   7.5943698 +26.3045745     6.24  23.3673      3.252      198.416  23.2068  0.52   0
       321   1979.598    892.238   7.5947025 +26.3029915     9.26  20.8593      4.476     1083.617  21.3635  0.91   0
       322    720.742    859.634   7.6515858 +26.3043350     4.68  23.1676      2.805     324.5698  22.6725  0.65   0
       323      7.794    863.731   7.6838021 +26.3041725     4.48  22.9068      2.484     486.4404  22.2331  0.77  16
       324   1238.512    875.414   7.6281895 +26.3036892     5.12  21.7955      2.999      1036.35  21.4120  0.96   0
       325    709.736    858.533   7.6520831 +26.3043797     4.23  23.6003      2.560     267.4062  22.8828  0.66   0
       326    108.797    856.024   7.6792379 +26.3044844     5.09  23.6728      2.817     198.7368  23.2050  0.55   0
       327   1409.976    877.907   7.6204416 +26.3035851     7.09  21.9628      3.344     629.6118  21.9530  0.96   0
       328    688.796    863.048   7.6530294 +26.3041971     4.71  23.4428      2.702      262.751  22.9019  0.59   0
       329   2015.634    874.364   7.5930735 +26.3037141     6.65  22.9288      2.443     702.9839  21.8334  0.76  24
       330    520.570    889.850   7.6606314 +26.3031134     9.03  20.9424      8.384     597.5112  22.0099  0.86   0
       331    358.457    866.982   7.6679565 +26.3040401     5.73  23.2207      3.004     252.0352  22.9471  0.55   0
       332    973.300    916.873   7.6401745 +26.3020148     5.41  20.2736      8.309     2866.683  20.3073  0.94   3
       333     55.273    888.647   7.6816568 +26.3031638     3.86  20.7453      2.286     4262.601  19.8765  0.98   0
       334   1949.420    873.908   7.5960655 +26.3037344     6.43  22.7933      3.585     324.5015  22.6727  0.66   0
       335   1985.584    877.069   7.5944314 +26.3036054     5.19  22.5858      3.193     471.0137  22.2681  0.79   0
       336   1848.067    880.767   7.6006456 +26.3034594     9.44  22.3154      4.241      319.627  22.6891  0.85   0
       337   1034.719    920.867   7.6373992 +26.3018522     5.48  19.5579      4.532     4994.303  19.7045  0.98   0
       338    315.502    889.911   7.6698978 +26.3031120     3.46  21.4505      2.295     2716.059  20.3659  0.96   0
       339    868.180    887.300   7.6449239 +26.3032133     5.31  21.3794      8.147     649.0513  21.9200  0.93   0
       340   1438.727    877.326   7.6191424 +26.3036080     4.00  23.4432      3.035     258.5015  22.9196  0.61   0
       341    660.842    891.868   7.6542930 +26.3030306    10.24  22.6952      3.664     357.5122  22.5675  0.72   0
       342   1606.004    875.986   7.6115836 +26.3036588     4.14  23.8040      2.767     157.8823  23.4549  0.48   0
       343    186.323    889.555   7.6757350 +26.3031268     5.83  22.1199      4.228     518.5449  22.1638  0.91   0
       344   1624.750    888.876   7.6107369 +26.3031365     7.59  22.7495      4.463     199.9976  23.1982  0.52   0
       345   1805.734    917.994   7.6025597 +26.3019534    13.46  20.8843      4.925      909.937  21.5532  0.65   0
       346   1008.409    908.808   7.6385879 +26.3023408     5.82  20.9066      8.908     914.0469  21.5483  0.97   0
       347    314.580    907.039   7.6699396 +26.3024186     6.36  22.5048      3.527     377.1094  22.5096  0.86   0
       348   1684.501    915.372   7.6080377 +26.3020624     3.65  20.6643      2.115       4886.6  19.7282  0.97   0
       349   1479.169    907.810   7.6173157 +26.3023731     5.02  22.0497      3.032     831.8389  21.6506  0.95   0
       350   1202.314    921.434   7.6298262 +26.3018267     3.65  20.0219      2.044     9707.152  18.9830  0.98   0
       351    657.189    907.289   7.6544583 +26.3024063     4.88  22.7242      2.611     498.1675  22.2073  0.82   0
       352   1607.931    915.640   7.6114977 +26.3020534     8.56  22.4595      4.095     251.3999  22.9498  0.53   0
       353   1063.913    918.945   7.6360800 +26.3019296     6.05  21.9140      4.683     517.5449  22.1659  0.94   0
       354   1099.659    933.546   7.6344651 +26.3013380     5.63  21.5653      3.235     1118.067  21.3296  0.97   0
       355    815.724    940.628   7.6472952 +26.3010550     4.58  20.6890      3.240     2854.504  20.3119  0.98   0
       356    898.784    958.721   7.6435424 +26.3003215     5.75  19.3846      4.198     6096.971  19.4879  0.98   0
       357   1230.786    931.987   7.6285399 +26.3013990     5.42  21.6458      3.213     1164.371  21.2855  0.97   0
       358   1491.182    936.739   7.6167738 +26.3012017     3.77  20.1255      2.090     8989.109  19.0664  0.97   0
       359   1139.670    937.161   7.6326572 +26.3011910     6.81  21.8646      3.421     681.4766  21.8671  0.96   0
       360   1732.838    929.293   7.6058540 +26.3014977     5.37  23.0369      2.866      336.459  22.6334  0.63   0
       361   1421.398    946.825   7.6199273 +26.3007948     7.05  21.6574      3.744     818.6948  21.6679  0.97   0
       362   1279.994    933.961   7.6263165 +26.3013182     5.09  23.3433      2.766      271.729  22.8654  0.59   0
       363     76.583    937.310   7.6806941 +26.3011937     6.26  22.6581      3.668     323.0576  22.6775  0.69   0
       364   1104.914    948.116   7.6342280 +26.3007480     5.15  22.5405      2.954     508.1812  22.1857  0.85   0
       365   1127.940    947.625   7.6331875 +26.3007676     5.04  22.6878      2.946     461.5059  22.2903  0.81   0
       366    794.955    944.689   7.6482338 +26.3008908     4.66  22.9203      2.665     463.6943  22.2851  0.74   0
       367   1736.424    956.975   7.6056929 +26.3003770     5.30  21.4491      3.081     1397.471  21.0874  0.97   0
       368    701.348    954.744   7.6524637 +26.3004847     7.17  21.9187      3.321     658.1597  21.9049  0.96   0
       369     83.602    969.913   7.6803772 +26.2998737     9.49  21.0601      5.426     763.3218  21.7440  0.56   0
       370    610.216    957.806   7.6565816 +26.3003615     6.54  22.0242      3.403     637.2808  21.9399  0.96   0
       371   1349.388    953.449   7.6231813 +26.3005280     7.39  22.7592      3.182      323.623  22.6756  0.78   0
       372   1137.133   1167.927   7.6327772 +26.2918486    31.25  14.6242      5.464     142151.5  16.0688  1.00   4
       373    543.229    954.494   7.6596084 +26.3004962     7.22  22.4849      5.440     219.6138  23.0966  0.53   0
       374   1927.818    978.156   7.5970453 +26.2995146     9.74  21.6606      5.083      387.209  22.4809  0.61   0
       375    585.454    958.219   7.6577005 +26.3003450     4.60  23.4110      2.263     336.1543  22.6344  0.68   0
       376   1055.514    965.465   7.6364605 +26.3000464     4.95  22.2318      3.070     691.4683  21.8513  0.93   0
       377    725.382    975.705   7.6513780 +26.2996359     5.43  21.3867      3.267     1374.517  21.1053  0.98   0
       378   1987.652    994.182   7.5943422 +26.2988641    10.69  22.6192      4.186     226.3716  23.0637  0.55   0
       379   1761.499   1967.115   7.6045928 +26.2594815    12.73  21.0294      5.846     650.9609  21.9168  0.17  24
       380    783.396   1967.846   7.6487737 +26.2594691     4.72  23.0063      2.520     476.6353  22.2553  0.76  24
       381    398.259   1969.106   7.6661703 +26.2594211     5.37  23.5955      3.067      160.832  23.4348  0.51  16
       382   1688.886   1967.064   7.6078727 +26.2594853     5.41  23.0261      3.961     194.4287  23.2288  0.51  16
       383    732.398   1964.506   7.6510772 +26.2596048     5.80  23.4223      2.767     270.9536  22.8685  0.60  16
       384    582.390   1965.414   7.6578531 +26.2595694     6.31  23.2214      3.582     176.1807  23.3358  0.53  16
       385   1892.693   1880.125   7.5986637 +26.2629999     6.67  22.9744      4.364     288.5869  22.8000  0.63   3
       386    259.884   1847.653   7.6724196 +26.2643387     4.98  19.2742      2.440     13514.53  18.6237  0.98   0
       387   1680.433   1938.400   7.6082536 +26.2606459     4.63  23.1499      2.578     389.7437  22.4738  0.71   0
       388   1878.881   1864.888   7.5992871 +26.2636171     9.38  21.7756      4.530     443.6416  22.3331  0.85   0
       389    815.770   1900.513   7.6473101 +26.2621947     6.08  23.2162      3.355     221.1553  23.0890  0.60   0
       390    905.058   1863.034   7.6432762 +26.2637109     8.57  22.0739      4.004     421.9556  22.3876  0.93   0
       391   1894.362   1871.674   7.5985881 +26.2633420     7.74  21.7612      5.727     412.8965  22.4111  0.94   2
       392    453.743   1866.078   7.6636629 +26.2635919     8.57  21.9795      4.542     358.7642  22.5637  0.72   0
       393   1813.134   1882.126   7.6022576 +26.2629209     4.52  23.6081      3.121      171.021  23.3681  0.47   0
       394    438.950   1875.969   7.6643312 +26.2631915     4.81  23.2539      3.053      249.127  22.9597  0.60   0
       395   1287.940   1844.106   7.6259803 +26.2644714     3.82  20.3472      2.045     7304.015  19.2918  0.97   0
       396    504.217   1849.073   7.6613827 +26.2642799     6.15  22.8260      3.710     285.8989  22.8102  0.59   0
       397   1471.562   1736.249   7.6176827 +26.2688345     7.82  22.6816      3.526     265.0815  22.8923  0.74   0
       398   1270.192   1866.472   7.6267826 +26.2635663     8.34  20.5762      4.381     1572.659  20.9591  0.97   0
       399   1223.406    976.124   7.6288745 +26.2996123     5.06  23.4412      2.743     246.7539  22.9701  0.67   0
       400   1603.496   1940.716   7.6117290 +26.2605539     6.10  23.0630      4.148     163.7544  23.4152  0.52   0
       401   1376.581   1049.586   7.6219551 +26.2966354     5.26  22.8821      2.974     360.9644  22.5571  0.69   0
       402    137.824   1940.330   7.6779339 +26.2605870     9.07  22.8863      3.970     211.5493  23.1372  0.57   0
       403   1998.492   1865.466   7.5938841 +26.2635905     4.98  23.0469      2.963     296.8452  22.7694  0.59   0
       404     85.740   1796.195   7.6802857 +26.2664223    11.34  21.4215      5.354     484.6538  22.2371  0.48   0
       405    660.625   1851.398   7.6543174 +26.2641846     5.29  23.8290      2.479     229.9951  23.0464  0.52   0
       406   1394.221   1922.061   7.6211815 +26.2613135     5.87  21.7878      3.373     946.5771  21.5103  0.97   0
       407   1334.214   1828.186   7.6238896 +26.2651151     5.72  23.5120      2.804     227.1758  23.0598  0.56   0
       408    219.562    965.919   7.6742337 +26.3000352     5.68  23.0478      3.378     253.0762  22.9426  0.59   0
       409    843.575   1887.574   7.6460539 +26.2627182     6.00  22.4617      5.088     233.3545  23.0307  0.56   0
       410    448.981   1885.297   7.6638782 +26.2628138     7.83  21.8057      3.968     496.4302  22.2111  0.90   0
       411    165.941   1844.393   7.6766631 +26.2644709     9.43  21.9497      4.224     391.9224  22.4677  0.70   0
       412   1156.973   1857.465   7.6318967 +26.2639328     5.95  22.8561      3.264     316.7427  22.6990  0.69   0
       413    490.636   1811.388   7.6619956 +26.2658057     7.83  22.0183      4.588     369.2153  22.5325  0.87   0
       414   1768.964   1825.500   7.6042509 +26.2652145     3.74  23.9164      2.539     177.7417  23.3263  0.49   0
       415    898.358   1882.743   7.6435792 +26.2629131     4.54  22.4448      2.547     894.8159  21.5714  0.88   0
       416    578.632   1854.929   7.6580213 +26.2640423     6.28  22.7269      3.243     332.7183  22.6455  0.80   0
       417   1349.299   1937.012   7.6232111 +26.2607091     4.25  24.0345      2.356     177.6157  23.3270  0.43   0
       418    720.131   1910.797   7.6516304 +26.2617793     7.50  21.4618      3.803     843.0474  21.6361  0.98   0
       419    872.004   1836.811   7.6447688 +26.2647729     4.94  23.5849      3.019     174.8184  23.3443  0.49   0
       420   1185.624   1860.131   7.6306025 +26.2638244     5.55  22.1666      3.067     647.8013  21.9221  0.94   0
       421    735.040   1851.481   7.6509560 +26.2641805     3.02  21.7471      2.422     2233.001  20.5785  0.95   0
       422    361.996    968.299   7.6677977 +26.2999383     4.25  23.8497      2.529     202.7437  23.1834  0.56   0
       423   1466.644   1816.956   7.6179071 +26.2655672     6.27  22.1842      4.095     442.5127  22.3359  0.91   0
       424    438.023   1834.981   7.6643726 +26.2648509     4.24  23.8781      2.493     197.7134  23.2106  0.55   0
       425    307.060   1907.379   7.6702892 +26.2619205     5.67  22.1251      3.207     719.8828  21.8076  0.96   0
       426   1010.237   1953.937   7.6385270 +26.2600294     6.57  23.3622      3.205     220.3838  23.0928  0.53   0
       427    896.205   1022.982   7.6436601 +26.2977200     5.72  20.3254      3.802     3048.929  20.2404  0.98   0
       428   1025.023   1798.492   7.6378558 +26.2663223     5.04  23.4644      3.261     194.2158  23.2300  0.57   0
       429    987.366   1821.987   7.6395574 +26.2653716     3.19  21.9763      2.764     1655.795  20.9032  0.93   0
       430    766.312   1585.127   7.6495388 +26.2749634     4.83  23.5639      3.118      188.002  23.2653  0.47   0
       431    573.472   1791.269   7.6582534 +26.2666196     7.40  22.6613      3.702     284.0884  22.8171  0.78   0
       432    836.891   1705.298   7.6463525 +26.2700976     5.73  23.1415      3.316     239.6626  23.0017  0.59   0
       433    597.863   1754.979   7.6571511 +26.2680886    11.61  20.3153      6.792     961.4214  21.4934  0.04   0
       434   1560.018   1792.656   7.6136885 +26.2665490     4.61  19.0460      2.474     17807.69  18.3242  0.98   0
       435   1038.566   1764.693   7.6372433 +26.2676904     5.56  22.8236      2.879     393.2979  22.4639  0.76   0
       436    978.003   1775.021   7.6399793 +26.2672731     5.24  22.7150      2.863     458.5146  22.2973  0.82   0
       437   1796.735   1806.316   7.6029958 +26.2659905     9.83  22.0252      6.377     234.8677  23.0237  0.55   0
       438    610.374    972.348   7.6565746 +26.2997728     5.32  23.5824      2.831     220.3765  23.0928  0.66   0
       439   1665.084   1798.476   7.6089426 +26.2663110     5.79  22.2660      3.474     503.7134  22.1953  0.92   0
       440   1967.922   1746.495   7.5952607 +26.2684078     5.79  20.5109      4.707     2071.119  20.6602  0.97   0
       441   1733.021   1754.465   7.6058723 +26.2680912     6.55  23.1040      3.262     228.0972  23.0554  0.58   0
       442   1531.213   1762.628   7.6149889 +26.2677653     4.17  23.2671      2.396     407.3584  22.4258  0.73   0
       443   1903.735   1783.412   7.5981616 +26.2669150     6.30  22.1584      3.366     549.6831  22.1004  0.95   0
       444    622.703   1891.852   7.6560310 +26.2625472     4.35  23.7560      2.855     197.4702  23.2120  0.49   0
       445    112.096   1940.766   7.6790961 +26.2605694     5.30  22.8248      3.002     398.9019  22.4486  0.68   0
       446   1403.988   1791.922   7.6207368 +26.2665819     8.89  22.9193      3.805     212.4556  23.1326  0.54   0
       447   1400.367   1782.609   7.6209001 +26.2669590     4.11  23.5268      2.993     266.4712  22.8866  0.60   0
       448    293.672    986.417   7.6708851 +26.2992051     5.01  23.1915      2.707      297.645  22.7665  0.64   0
       449    246.014    990.198   7.6730387 +26.2990522     6.03  23.2550      3.089      207.019  23.1607  0.53   0
       450    222.081    991.656   7.6741201 +26.2989933     4.76  23.5886      2.882     211.2827  23.1386  0.62   0
       451   2016.059   1769.152   7.5930871 +26.2674892     6.73  23.4314      2.836     338.2354  22.6277  0.69  24
       452   1735.887    983.639   7.6057180 +26.2992975     8.72  22.6728      4.097     226.9434  23.0609  0.62   0
       453    624.578    982.708   7.6559330 +26.2993533     5.43  22.9989      2.628     401.1802  22.4424  0.72   0
       454    916.734   1041.996   7.6427329 +26.2969500    11.58  21.8359      5.114     384.1865  22.4894  0.57   0
       455    786.678    991.233   7.6486086 +26.2990066     5.16  21.9527      2.779     1055.391  21.3922  0.96   0
       456    973.570   1051.427   7.6401650 +26.2965674     4.94  22.6193      2.555     578.9292  22.0442  0.88   0
       457    973.885   1960.414   7.6401691 +26.2597677     7.06  23.2611      3.275     206.4346  23.1638  0.59   0
       458    674.923   1017.447   7.6536586 +26.2979465     6.36  21.7810      4.722     532.0479  22.1358  0.95   0
       459   1407.196   1019.044   7.6205710 +26.2978713     6.64  22.9373      4.060     249.3296  22.9588  0.55   0
       460    217.979   1702.501   7.6743113 +26.2702152     3.74  24.0370      2.285     192.7651  23.2382  0.57   0
       461   1460.253   1016.558   7.6181736 +26.2979709     5.21  20.7880      3.201     2461.044  20.4729  0.98   0
       462    824.149   1040.742   7.6469163 +26.2970018     7.57  22.4064      3.950     340.9409  22.6190  0.87   0
       463   1489.060   1815.792   7.6168946 +26.2656138     5.49  22.2118      3.314      618.502  21.9724  0.93   0
       464    796.158   1682.592   7.6481923 +26.2710173     8.32  22.9039      3.986     210.7158  23.1415  0.55   0
       465   1092.353   1023.618   7.6347973 +26.2976916    20.43  20.8993      8.626     353.9463  22.5784  0.01   0
       466   1964.185   1691.455   7.5954276 +26.2706362     5.40  23.3204      3.752     187.8916  23.2660  0.53   0
       467   1713.789   1702.117   7.6067394 +26.2702109     4.15  22.5992      2.524     803.0015  21.6889  0.84   0
       468    136.875   1677.120   7.6779749 +26.2712429     4.53  23.6140      3.104     156.6533  23.4634  0.45   0
       469    704.390   1050.983   7.6523277 +26.2965885     9.56  23.0114      5.590     217.2495  23.1083  0.58   1
       470    483.906   1708.698   7.6622983 +26.2699631     8.31  22.8206      4.374     191.1768  23.2471  0.54   0
       471    414.504   1712.992   7.6654336 +26.2697896     3.75  23.8093      2.764     143.7202  23.5569  0.41   0
       472    726.568   1648.330   7.6513354 +26.2724051     6.08  23.0113      3.085     314.0645  22.7082  0.63   0
       473   1311.113   1697.093   7.6249298 +26.2704227     9.77  21.5432      4.063     756.8564  21.7532  0.97   0
       474    870.132   1040.226   7.6448386 +26.2970222     5.58  20.6733      3.357     2714.237  20.3666  0.98   0
       475    842.331   1598.814   7.6461049 +26.2744084     5.32  22.7709      3.415     345.0034  22.6062  0.68   0
       476    274.683   1056.264   7.6717438 +26.2963775     5.04  23.2665      2.767     303.3081  22.7460  0.67   0
       477     69.974   1665.182   7.6809971 +26.2717263     5.14  19.5102      2.428     10821.23  18.8650  0.98   0
       478   1509.539   1706.519   7.6159663 +26.2700373     8.11  21.9072      4.475     386.7559  22.4821  0.73   0
       479    494.481   1703.863   7.6618206 +26.2701588     5.75  23.4234      3.048     206.4209  23.1638  0.59   0
       480    298.629   1463.694   7.6706658 +26.2798829     5.67  22.7544      3.502     311.4487  22.7173  0.65   0
       481    137.680   1054.320   7.6779342 +26.2964566     6.00  22.6388      4.250     261.0259  22.9090  0.58   0
       482    414.484   1660.997   7.6654339 +26.2718946     6.10  23.3815      3.089     210.9731  23.1402  0.58   0
       483   1783.801   1091.598   7.6035565 +26.2949257     3.45  23.9948      2.510     150.9561  23.5036  0.43   0
       484    943.959   1641.278   7.6415146 +26.2726881     6.38  22.7663      3.132      326.167  22.6671  0.75   0
       485    605.959   1596.209   7.6567831 +26.2745162    13.24  21.2102      5.538     798.5015  21.6950  0.85   2
       486    796.423   1046.300   7.6481692 +26.2967771     4.17  21.3919      2.527     2511.141  20.4510  0.97   0
       487   1103.340   1060.541   7.6343016 +26.2961966     8.20  22.6923      4.962     208.1426  23.1548  0.52   0
       488    884.654   1099.949   7.6441835 +26.2946042     7.35  20.9235      4.402     1568.139  20.9623  0.98   0
       489   1398.116   1061.137   7.6209824 +26.2961674     7.68  22.6179      4.261     269.0171  22.8763  0.64   0
       490    747.646   1672.408   7.6503836 +26.2714301    10.11  21.3370      4.223     769.2554  21.7355  0.94   0
       491   1458.064   1655.088   7.6182902 +26.2721205     4.31  22.8887      2.385     631.0488  21.9506  0.77   0
       492      3.802   1066.650   7.6839834 +26.2959574     6.09  23.6342      2.738     180.4131  23.3101  0.53  16
       493   1299.086   1660.980   7.6254722 +26.2718850     5.28  21.7901      3.209     1027.545  21.4212  0.96   0
       494    202.877   1659.055   7.6749932 +26.2719741     6.42  23.3171      3.039     207.5786  23.1578  0.59   0
       495    680.768   1046.057   7.6533950 +26.2967881     9.11  18.6795      7.021      5381.64  19.6234  0.07   2
       496   1268.983   1612.773   7.6268309 +26.2738371    14.07  20.6717      7.194     634.9688  21.9438  0.02   0
       497    778.945   1061.238   7.6489592 +26.2961726     7.36  21.1528      4.896     1130.378  21.3177  0.98   0
       498   1853.053   1615.941   7.6004453 +26.2736962     7.17  22.6468      5.144     154.7241  23.4768  0.52   0
       499   1150.822   1086.871   7.6321568 +26.2951299     4.44  22.7484      2.487      591.124  22.0215  0.81   0
       500    764.353   1652.407   7.6496285 +26.2722396    15.30  22.0010      4.986     337.7915  22.6291  0.37   0
       501   1535.359   1636.455   7.6147979 +26.2728732     3.30  22.1682      2.072     1578.515  20.9551  0.90   0
       502   1488.096   1584.989   7.6169315 +26.2749578     6.13  19.1631      4.777      6328.94  19.4474  0.96   0
       503   1367.392   1593.589   7.6223847 +26.2746120     6.07  21.7773      3.312     880.7954  21.5885  0.97   0
       504   1450.623   1103.012   7.6186111 +26.2944711     4.45  23.6053      2.298     322.1001  22.6807  0.65   0
       505    412.052   1613.882   7.6655432 +26.2738021    10.07  22.0468      4.364     379.5371  22.5026  0.74   0
       506   1884.276   1641.295   7.5990357 +26.2726690     5.88  22.7946      3.075     359.9976  22.5600  0.74   0
       507    237.360   1616.899   7.6734351 +26.2736806     5.36  23.3721      3.430     174.9097  23.3437  0.53   0
       508   1957.170   1613.867   7.5957417 +26.2737774     3.33  21.2028      2.209     3390.406  20.1251  0.96   0
       509   1406.209   1606.008   7.6206315 +26.2741085     4.70  23.8262      2.561     216.5312  23.1119  0.52   0
       510    255.387   1617.548   7.6726207 +26.2736543     5.78  23.3191      3.065     237.8589  23.0099  0.55   0
       511   1330.935   1133.638   7.6240198 +26.2932335     5.79  21.4816      3.522     1029.298  21.4194  0.97   0
       512    946.356   1606.397   7.6414056 +26.2741002     4.92  23.1635      2.633     351.7842  22.5850  0.72   0
       513   1896.346   1674.614   7.5984916 +26.2713198     8.67  22.8803      4.060       239.52  23.0024  0.55   0
       514    608.276   1605.050   7.6566786 +26.2741583     7.19  22.7061      3.581     365.5703  22.5433  0.84   3
       515    252.786   1166.643   7.6727342 +26.2919089    24.77  19.9299      9.558     739.2051  21.7788  0.02   0
       516     92.779   1481.885   7.6799657 +26.2791469    11.77  21.4797      5.631     354.2383  22.5775  0.02   0
       517   1377.497   1132.068   7.6219159 +26.2932962     5.25  20.8099      3.577     2092.025  20.6493  0.98   0
       518   1076.154   1175.521   7.6355325 +26.2915421     5.32  22.2860      3.455     540.2285  22.1193  0.89   0
       519    961.944   1574.246   7.6407008 +26.2754016     5.28  20.6231      3.198     2688.561  20.3769  0.98   0
       520   1945.001   1583.292   7.5962904 +26.2750156    16.87  21.2141      6.810     387.4824  22.4801  0.02   0
       521   1254.122   1151.318   7.6274909 +26.2925191     6.53  20.2171      6.476     2221.372  20.5842  0.92   3
       522   1261.526   1167.436   7.6271568 +26.2918665    11.68  20.4947      5.745      1255.12  21.2040  0.58   3
       523   1775.547   1396.333   7.6039395 +26.2825889     6.58  21.8694      3.507     620.1689  21.9694  0.96   0
       524   1345.033   1563.756   7.6233940 +26.2758202    13.48  22.2504      4.796     292.2637  22.7863  0.61   0
       525   1731.839   1546.634   7.6059190 +26.2765051     5.62  22.6828      3.126     393.0381  22.4646  0.82   0
       526   1179.285   1560.966   7.6308819 +26.2759360     5.96  19.8068      4.416     3936.535  19.9629  0.98   0
       527    943.997   1503.503   7.6415101 +26.2782658     3.32  24.2112      2.122     203.9346  23.1770  0.47   0
       528   1545.243   1544.100   7.6143487 +26.2766119     5.17  16.7019      2.389     144191.2  16.0534  1.00   4
       529    446.171   1433.385   7.6639997 +26.2811092     5.08  23.2340      2.900     269.3564  22.8749  0.61   0
       530   1040.579   1426.342   7.6371452 +26.2813883     4.92  23.1580      3.157     285.6128  22.8113  0.67   0
       531    321.382   1415.008   7.6696373 +26.2818538     4.44  19.8461      2.232     9912.948  18.9602  0.98   0
       532   1952.895   1556.888   7.5959328 +26.2760843     9.54  21.9956      5.459     259.1265  22.9169  0.54   0
       533   1831.145   1525.384   7.6014320 +26.2773629     8.20  22.2625      3.919     302.7681  22.7479  0.60   0
       534    715.278   1538.306   7.6518436 +26.2768594    10.05  22.2356      4.379     305.3853  22.7386  0.66   0
       535   1941.150   1415.550   7.5964584 +26.2818066     5.34  23.0213      3.242     291.1416  22.7905  0.62   0
       536    536.255   1394.945   7.6599294 +26.2826648     6.83  20.3592      3.848      2701.53  20.3717  0.98   0
       537    784.532   1530.479   7.6487148 +26.2771756     5.52  23.4004      2.918     272.4155  22.8626  0.58   0
       538    744.881   1425.888   7.6505044 +26.2814103     5.00  23.1850      4.038     188.5874  23.2619  0.52   0
       539    968.660   1508.393   7.6403961 +26.2780675     4.82  23.6029      2.746     239.3457  23.0032  0.55   0
       540   1232.373   1426.777   7.6284802 +26.2813677     6.38  22.9521      2.925     331.0479  22.6510  0.71   0
       541   1021.498   1519.010   7.6380092 +26.2776370     3.75  23.8282      2.700      179.896  23.3132  0.47   0
       542   1861.972   1540.200   7.6000398 +26.2767623     3.13  21.1613      2.180     3482.758  20.0959  0.97   0
       543   1664.833   1450.569   7.6089431 +26.2803958     6.34  18.3482     10.002     7179.848  19.3104  0.42   2
       544   1270.529   1533.332   7.6267591 +26.2770532     6.68  21.9697      4.156     507.8086  22.1865  0.95   0
       545   1923.762   1501.640   7.5972470 +26.2783218     6.00  23.0680      3.662     217.9668  23.1047  0.53   0
       546   1272.096   1502.407   7.6266875 +26.2783052     4.85  22.9575      2.726     404.5933  22.4332  0.74   0
       547    674.466   1510.013   7.6536869 +26.2780052     4.73  23.5519      2.754     221.7852  23.0859  0.57   0
       548   1561.489   1490.538   7.6136132 +26.2787800     4.73  18.6356      2.448     26468.52  17.8939  0.98   0
       549    297.413   1513.490   7.6707211 +26.2778669     5.70  19.6346      3.203     6482.376  19.4214  0.98   0
       550   1303.857   1506.961   7.6252528 +26.2781203     3.96  18.7466      2.202     29804.06  17.7650  0.98   0
       551    114.071   1516.385   7.6790040 +26.2777502     6.35  23.2253      3.619     185.3589  23.2807  0.58   0
       552    871.058   1450.515   7.6448043 +26.2804119     9.24  21.5895      4.035     711.2095  21.8207  0.97   0
       553    816.013   1483.034   7.6472918 +26.2790960     5.08  23.4049      2.606     288.5781  22.8001  0.63   0
       554    192.067   1468.864   7.6754800 +26.2796739    10.19  22.4717      4.981     191.9492  23.2428  0.53   0
       555   1829.222   1457.251   7.6015166 +26.2801213     5.44  22.9242      4.313     220.0874  23.0942  0.52   0
       556   1481.859   1497.805   7.6172109 +26.2784875     4.14  23.7939      2.356     265.8735  22.8890  0.59   0
       557   1033.572   1469.341   7.6374627 +26.2796476     7.86  16.8795      2.429     131652.8  16.1521  1.00   4
       558   1179.801   1468.833   7.6308564 +26.2796659     5.43  21.6582      3.302     1076.937  21.3702  0.97   0
       559    887.579   1431.942   7.6440576 +26.2811636     3.07  21.5723      2.349      2615.91  20.4067  0.95   0
       560   1649.528   1479.703   7.6096354 +26.2792167     3.37  21.1001      2.252     3487.349  20.0945  0.98   3
       561    893.243   1453.508   7.6438021 +26.2802905     6.90  23.1903      3.550     202.6387  23.1839  0.59   0
       562   1307.206   1485.558   7.6251009 +26.2789867     9.33  21.9809      4.383     384.2285  22.4893  0.76   0
       563    650.175   1476.269   7.6547838 +26.2793716     3.05  21.3479      2.207      3146.28  20.2062  0.96   0
       564   1783.345   1455.374   7.6035891 +26.2801985    13.43  19.7743      5.779     1838.917  20.7893  0.05   0
       565   1059.198   1434.428   7.6363042 +26.2810607     9.01  20.1802      5.966     1643.084  20.9116  0.29   3
       566    632.796   1444.170   7.6555685 +26.2806712    10.64  21.2126      5.084     620.7344  21.9685  0.75   0
       567   1067.620   1458.894   7.6359242 +26.2800701     8.13  19.5723      5.841     4164.353  19.9019  0.90   3
       568   1160.906   1448.782   7.6317096 +26.2804780     3.79  20.0195      2.061     10017.66  18.9488  0.97   2
       569   1630.808   1456.653   7.6104805 +26.2801503     5.75  20.3012      2.616     5892.701  19.5249  0.99   0
       570   1151.468   1443.529   7.6321358 +26.2806908     4.80  23.1105      2.778     408.6553  22.4223  0.74   3
       571    874.617   1427.926   7.6446431 +26.2813264     4.17  22.9732      2.448     503.3618  22.1960  0.75   0
       572   1002.645   1328.889   7.6388570 +26.2853342     4.83  23.5925      3.094     181.8804  23.3013  0.51   0
       573   1349.024   1456.510   7.6232109 +26.2801619     3.96  23.5186      2.625     276.2798  22.8474  0.61   0
       574    517.472   1440.500   7.6607786 +26.2808207     4.41  23.4238      3.431     164.0776  23.4131  0.47   0
       575    401.398   1162.031   7.6660195 +26.2920950     9.63  15.9064      3.338     134452.1  16.1293  1.00   4
       576    964.944   1416.129   7.6405621 +26.2818028     9.40  20.9936      4.166     1299.299  21.1665  0.98   0
       577   1096.433   1389.905   7.6346210 +26.2828626     5.24  23.1216      2.873     324.0791  22.6741  0.64   0
       578    646.815   1427.273   7.6549349 +26.2813552     3.26  22.1256      2.343     1585.845  20.9501  0.92   0
       579    615.728   1433.153   7.6563394 +26.2811174     4.04  19.5654      2.131     13984.79  18.5866  0.97   0
       580   1827.279   1439.877   7.6016038 +26.2808247     6.15  21.3141      4.666     851.2031  21.6256  0.98   0
       581    985.392   1345.192   7.6396368 +26.2846744     4.41  22.0366      3.154     1044.246  21.4037  0.93   0
       582    899.096   1184.170   7.6435326 +26.2911944     3.92  18.8814      2.224     26435.24  17.8953  0.98   0
       583    409.230   1412.074   7.6656684 +26.2819722     4.60  19.5551      2.325     12415.08  18.7158  0.98   0
       584   1727.282   1404.748   7.6061203 +26.2822494     5.61  22.0774      3.331      659.895  21.9020  0.95   0
       585    559.985   1316.621   7.6588562 +26.2858355     5.12  23.3174      3.136     240.9058  22.9961  0.55   0
       586   1179.861   1356.788   7.6308510 +26.2842020     3.27  20.7314      1.994     5676.479  19.5655  0.97   0
       587    994.862   1383.846   7.6392098 +26.2831094     3.88  23.0307      2.234     591.2925  22.0212  0.76   0
       588   1557.445   1176.475   7.6137866 +26.2914947     7.35  22.0868      3.827     505.6802  22.1910  0.95   0
       589   1617.667   1365.252   7.6110714 +26.2838509     7.05  23.0274      4.082     170.6689  23.3703  0.52   0
       590    772.962   1193.979   7.6492318 +26.2907987     5.34  22.6996      3.103     386.5083  22.4828  0.77   0
       591    802.844   1217.162   7.6478820 +26.2898598    18.53  21.0432     10.302     261.5415  22.9069  0.13   0
       592    197.612   1377.384   7.6752288 +26.2833774     6.22  22.6742      3.731     327.1479  22.6639  0.69   0
       593   1639.792   1386.061   7.6100724 +26.2830080     5.55  21.5015      3.172     1209.521  21.2442  0.97   0
       594     96.233   1332.920   7.6798087 +26.2851777    45.87  13.9994      7.812     134775.3  16.1267  0.99   4
       595    367.725   1373.549   7.6675432 +26.2835320     4.45  18.8171      2.343     22702.68  18.0605  0.98   0
       596      2.746   1361.964   7.6840326 +26.2840019    13.99  21.8070      7.136     391.6455  22.4685  0.92  24
       597   1366.449   1901.976   7.6224355 +26.2621272     5.51  21.6396      3.471     1132.069  21.3160  0.97   0
       598   1571.832   1344.280   7.6131416 +26.2847009     8.53  22.9884      3.471     218.0542  23.1043  0.56   0
       599    301.212   1292.375   7.6705474 +26.2868186     6.36  18.5477      4.462     11458.23  18.8029  0.90   3
       600   1005.763   1185.945   7.6387132 +26.2911211     7.84  22.5470      4.286     359.3657  22.5619  0.88   0
       601   1751.786   1196.591   7.6050065 +26.2906759     3.45  23.8042      2.757     147.9453  23.5255  0.44   0
       602    519.353   1355.902   7.6606925 +26.2842456     5.35  23.7637      2.665      182.271  23.2989  0.56   0
       603   1386.618   1368.756   7.6215101 +26.2837138     6.64  22.3486      3.507     482.5293  22.2419  0.93   0
       604   1666.865   1360.213   7.6088485 +26.2840538     8.12  21.7646      4.407     488.5942  22.2284  0.88   0
       605   1318.623   1196.574   7.6245777 +26.2906858     4.93  22.4753      2.900      560.436  22.0794  0.88   0
       606     42.963   1356.013   7.6822156 +26.2842428     6.26  22.1280      7.129     242.5591  22.9887  0.56   0
       607    823.703   1209.749   7.6469394 +26.2901597     3.47  20.7141      2.080     5311.685  19.6376  0.97   0
       608   1409.061   1327.355   7.6204950 +26.2853895     5.65  22.8446      2.927     422.0576  22.3873  0.74   0
       609   1418.668   1300.634   7.6200603 +26.2864711     4.83  23.0396      2.985     370.1611  22.5297  0.67   0
       610    425.156   1338.165   7.6649481 +26.2849642     5.47  23.4319      3.035     216.7681  23.1107  0.55   0
       611     15.598   1318.153   7.6834517 +26.2857755    11.11  21.9873      6.297     218.1914  23.1036  0.42   0
       612   1702.927   1334.475   7.6072184 +26.2850949     8.73  21.7206      4.891     427.0576  22.3745  0.79   0
       613   1097.451   1335.387   7.6345738 +26.2850697     4.73  22.7302      3.280     427.6719  22.3729  0.74   0
       614   1783.015   1178.990   7.6035949 +26.2913877     4.80  23.5704      3.033     154.9854  23.4750  0.45   0
       615   1118.291   1295.289   7.6336313 +26.2866927     6.14  19.1174      5.011     6030.435  19.4999  0.90   0
       616    185.335   1218.157   7.6757822 +26.2898236     5.84  22.7016      3.471     358.6929  22.5639  0.70   0
       617    724.278   1299.422   7.6514331 +26.2865304     3.90  18.3173      2.209     41857.81  17.3963  0.98   0
       618    278.246   1309.430   7.6715852 +26.2861282     5.36  20.4280      5.821       2183.1  20.6030  0.92   3
       619   1084.892   1289.219   7.6351402 +26.2869390     5.93  22.2681      5.409     310.0933  22.7220  0.65   0
       620    205.033   1288.747   7.6748928 +26.2869658     6.81  23.0751      3.350      220.103  23.0942  0.58   0
       621   1385.275   1303.553   7.6215691 +26.2863536    14.13  22.2210      5.018     242.0054  22.9912  0.45   0
       622   1170.467   1300.215   7.6312741 +26.2864925    11.63  21.7957      4.351     471.0527  22.2680  0.76   0
       623   1140.752   1223.597   7.6326149 +26.2895948     8.48  19.0648      4.869     5290.234  19.6420  0.97   0
       624    785.744   1282.328   7.6486558 +26.2872218     3.92  21.0861      3.152     2302.245  20.5453  0.98   0
       625    634.592   1296.607   7.6554852 +26.2866452     5.49  23.6254      2.588     212.0737  23.1345  0.59   0
       626   1090.750   1262.078   7.6348750 +26.2880377     5.47  21.7400      3.388     932.5391  21.5266  0.97   0
       627    951.512   1292.965   7.6411665 +26.2867892    15.33  21.3255      5.708     498.4971  22.2066  0.24   0
       628    600.991   1275.998   7.6570030 +26.2874798     4.12  24.0802      2.252     192.5859  23.2392  0.53   0
       629   1605.916   1243.303   7.6115986 +26.2887882    14.38  22.0324      5.185     285.6958  22.8110  0.41   0
       630   1135.123   1267.047   7.6328702 +26.2878358     5.96  21.5208      4.225     978.6748  21.4741  0.97   3
       631   1755.035   1276.072   7.6048623 +26.2874581     9.22  19.9921      5.003     1852.208  20.7815  0.36   0
       632   1397.083   1255.708   7.6210343 +26.2882903     4.65  23.1676      2.329     423.5083  22.3836  0.72   0
       633   1398.719   1229.305   7.6209597 +26.2893592     9.95  21.8407      5.462     335.3784  22.6369  0.71   0
       634    498.037   1273.524   7.6616545 +26.2875807     6.85  21.9375      3.899     488.0039  22.2297  0.95   0
       635   1646.458   1269.166   7.6097677 +26.2877402     4.72  23.3036      2.932     254.1377  22.9381  0.64   0
       636      2.493   1236.515   7.6840434 +26.2890806     4.39  23.7439      2.746     184.4204  23.2862  0.47  16
       637   1489.175   1262.203   7.6168737 +26.2880255    10.12  22.8306      3.706     245.7246  22.9746  0.66   0
       638    723.998   1271.088   7.6514453 +26.2876775     9.01  22.1023      4.142     342.7715  22.6132  0.64   0
       639    683.388   1259.405   7.6532800 +26.2881509     3.78  23.6531      2.448     289.8062  22.7955  0.57   0
       640   1020.768   1235.865   7.6380363 +26.2890999    14.92  19.5752      5.681     2828.052  20.3220  0.62   0
       641   1693.877   1248.603   7.6076246 +26.2885716     5.45  23.5172      2.902     203.2861  23.1805  0.54   0
       642    737.331   1238.944   7.6508424 +26.2889787     4.48  23.8846      2.213     244.8374  22.9785  0.58   0
       643   1149.678   1258.149   7.6322124 +26.2881958     5.36  20.1404      4.480     3103.847  20.2210  0.98   2
       644    429.592   1259.208   7.6647467 +26.2881607     3.44  24.0572      2.385     179.0181  23.3185  0.50   0
       645    715.260   1238.389   7.6518396 +26.2890014     5.38  21.7477      3.115     1047.798  21.4000  0.96   0
       646    624.833   1229.828   7.6559251 +26.2893488     3.92  24.0230      2.487     183.8188  23.2897  0.52   0
       647   1341.425   1220.536   7.6235481 +26.2897153     3.91  18.6886      2.185     28956.86  17.7963  0.98   0
       648    217.520   1132.989   7.6743273 +26.2932715    14.79  21.6484      5.507     393.5903  22.4631  0.49   0
       649   1550.778   1233.989   7.6140895 +26.2891664    10.34  22.5911      3.823     352.0918  22.5841  0.85   0
       650    681.516   1208.234   7.6533637 +26.2902225     5.16  19.6735      4.211     5058.002  19.6908  0.98   0
       651   1300.836   1219.133   7.6253819 +26.2897728     6.29  20.7295      4.094     1761.708  20.8359  0.98   0
       652    133.885   1221.391   7.6781068 +26.2896928    13.94  20.1962      6.108     1207.146  21.2463  0.03   0
       653    855.268   1214.521   7.6455134 +26.2899661     5.82  21.3916      3.281     1345.978  21.1281  0.98   0
       654   1442.174   1229.230   7.6189963 +26.2893614     4.92  22.8662      2.961     422.6069  22.3859  0.73   0
       655   1689.557   1197.523   7.6078181 +26.2906396     8.17  22.6698      4.574     214.1323  23.1240  0.57   0
       656    742.669   1181.204   7.6506003 +26.2913162     9.89  21.7286      4.792     422.3906  22.3864  0.76   0
       657    199.252   1207.183   7.6751533 +26.2902678     5.87  23.2068      3.021     250.9727  22.9517  0.57   0
       658   1787.570   1210.001   7.6033901 +26.2901321     3.62  21.5781      2.407     2121.812  20.6340  0.96   0
       659     16.148   1202.311   7.6834263 +26.2904653     4.60  20.2079      2.260     6672.227  19.3900  0.99   0
       660   1605.546   1133.877   7.6116120 +26.2932182     4.88  22.3008      2.844     663.7935  21.8956  0.92   0
       661   1275.668   1111.122   7.6265164 +26.2941460     4.32  23.4992      2.742     256.7007  22.9272  0.56   0
       662   1691.454   1172.878   7.6077317 +26.2916373     5.70  21.4974      3.143     1153.549  21.2956  0.97   0
       663   1030.280   1175.006   7.6376052 +26.2915636     9.97  20.8061      4.448     1135.436  21.3128  0.96   0
       664    157.445   1153.190   7.6770419 +26.2924538     6.44  18.6761      4.525     9702.434  18.9835  0.91   2
       665    282.024   1180.627   7.6714133 +26.2913427     3.95  21.9199      2.545     1393.324  21.0906  0.95   0
       666    750.288   1149.294   7.6502555 +26.2926080     6.20  23.5605      2.679      221.499  23.0873  0.53   0
       667    755.829   1165.997   7.6500054 +26.2919317     4.66  23.1661      3.378     241.1069  22.9952  0.57   0
       668    841.416   1086.733   7.6461369 +26.2951397    16.04  20.2316      9.484     603.1318  21.9997  0.01   2
       669    177.181   1150.082   7.6761501 +26.2925796     7.13  22.4431      4.580     338.3726  22.6272  0.87   3
       670    765.519   1153.812   7.6495674 +26.2924249     5.66  22.2494      3.364     571.5308  22.0581  0.92   0
       671   1614.757   1150.674   7.6111964 +26.2925380     5.33  21.9064      3.122     845.2686  21.6332  0.96   0
       672   1432.103   1133.523   7.6194487 +26.2932362     9.29  21.6761      3.793     798.8809  21.6945  0.97   0
       673   1293.870   1167.459   7.6256954 +26.2918650     6.22  23.2677      3.672     220.9717  23.0899  0.53   0
       674   1710.077   1132.433   7.6068889 +26.2932743     7.56  22.7124      3.419     304.4614  22.7419  0.72   0
       675    327.682   1132.478   7.6693499 +26.2932918     7.62  19.9178      5.214     2345.975  20.5249  0.59   0
       676     37.072   1155.591   7.6824807 +26.2923567     5.57  23.3005      3.067     233.1431  23.0317  0.57   0
       677    976.133   1145.211   7.6400511 +26.2927706     8.59  20.9125      4.485     1189.329  21.2625  0.98   0
       678   1305.686   1124.918   7.6251604 +26.2935870     4.35  23.2848      3.577     212.6782  23.1314  0.51   0
       679    525.284   1084.871   7.6604210 +26.2952180     8.17  17.7615      2.725     65699.77  16.9068  0.97   4
       680    688.124   1130.355   7.6530639 +26.2933753     5.48  21.8906      2.944       1021.1  21.4281  0.96   0
       681   1971.715   1116.357   7.5950667 +26.2939184     6.17  23.2145      3.851     167.8335  23.3885  0.53   0
       682    214.097   1076.306   7.6744815 +26.2955663     5.63  22.0968      3.095     764.1968  21.7427  0.96   0
       683   1240.319   1093.367   7.6281131 +26.2948655    15.28  19.0166      9.548     2563.981  20.4284  0.03   0
       684   1998.598   1113.960   7.5938520 +26.2940147    10.42  22.2337      5.869     164.5679  23.4099  0.44   0
       685    231.340   1090.795   7.6737025 +26.2949796     4.57  22.2432      2.564     921.9922  21.5389  0.93   0
       686   1510.077   1120.668   7.6159252 +26.2937550     9.03  22.5018      3.971     332.2578  22.6470  0.83   0
       687    849.131   1071.853   7.6457881 +26.2957420     5.79  21.9024      3.522     829.0469  21.6543  0.96   3
       688    461.076   1195.318   7.6633235 +26.2907471     5.52  22.9588      3.176     320.8311  22.6850  0.59   0
       689    693.185   1065.485   7.6528342 +26.2960015     7.14  22.3926      8.684     364.1133  22.5476  0.90   3
       690   1921.441   1005.852   7.5973344 +26.2983935     6.06  23.3259      3.287      181.001  23.3065  0.54   0
       691   1396.490   1091.872   7.6210567 +26.2949231     6.37  23.0371      3.987     200.1948  23.1971  0.55   0
       692    956.726   1091.468   7.6409269 +26.2949466     5.21  21.8938      2.838     1067.781  21.3795  0.96   0
       693    108.731   1103.069   7.6792425 +26.2944830     5.20  22.6455      2.791     488.8794  22.2277  0.87   0
       694   1047.111   1084.900   7.6368428 +26.2952113     5.89  22.4840      5.259     303.3896  22.7457  0.62   0
       695   1610.407   1076.190   7.6113906 +26.2955535    16.50  21.4360      5.565     508.0376  22.1860  0.57   0
       696   1118.993   1082.561   7.6335949 +26.2953049     8.90  19.4941      4.607     4831.074  19.7406  0.98   0
       697   1521.476   1075.297   7.6154089 +26.2955916     3.15  23.8939      2.080     308.1191  22.7289  0.56   0
       698    408.517   1059.673   7.6656966 +26.2962389     7.38  21.6790      3.331     894.6846  21.5715  0.97   0
       699   2003.767   1052.417   7.5936162 +26.2965061    12.69  20.8444      5.309     939.1465  21.5189  0.60  16
       700    126.661   1068.633   7.6784322 +26.2958771     4.87  22.9575      3.441     307.6318  22.7306  0.62   0
       701   1298.472   1042.941   7.6254843 +26.2969059     7.19  20.5454      4.311     2323.948  20.5352  0.98   0
       702    348.095   1067.260   7.6684269 +26.2959321     4.33  23.2120      2.250      453.835  22.3085  0.73   0
       703   1753.300   1036.876   7.6049329 +26.2971418     4.34  23.4868      2.758     255.5977  22.9318  0.57   0
       704   1576.438   1054.516   7.6129249 +26.2964318     6.38  22.1256      4.309       457.98  22.2986  0.91   0
       705   1805.211   1033.594   7.6025872 +26.2972734     4.22  18.7980      2.277     25057.94  17.9534  0.98   0
       706   1133.053   1024.942   7.6329582 +26.2976373     7.28  21.7686      4.317     628.9404  21.9542  0.97   0
       707   1145.734   1027.056   7.6323853 +26.2975516     4.96  23.4871      3.026     229.0068  23.0511  0.58   0
       708   1510.126   1018.818   7.6159201 +26.2978784     6.03  21.6582      3.465      832.647  21.6496  0.97   0
       709    197.123   1002.226   7.6752479 +26.2985654     6.15  21.7816      3.593     760.2983  21.7483  0.97   0
       710   1138.054   1001.410   7.6327318 +26.2985900     4.73  22.4905      2.762     650.1699  21.9182  0.89   0
       711     57.632   1002.390   7.6815508 +26.2985590     5.81  23.7784      2.542     189.6128  23.2561  0.56   0
       712   1945.688   1000.368   7.5962386 +26.2986149     4.74  23.2558      2.520      332.166  22.6473  0.66   0
       713   1218.444    999.988   7.6290993 +26.2986462     5.85  22.5764      3.497     446.9321  22.3251  0.75   0
       714   1166.193    994.773   7.6314601 +26.2988582     4.94  20.8245      3.142     2531.882  20.4421  0.98   0
       715   1045.405    997.327   7.6369180 +26.2987566     4.64  22.4195      2.583     790.6514  21.7058  0.91   0
